# YES:  Extinction Coefficients -- Results
#
# Quantities which were not computable
# are assigned a value of -99
#
#
# Reddening Law  = odonnell_94
# The law has been formulated to give R_V = 3.07 for Vega.
#
#
#Wavelength(A)   A_lambda/tau1  A_lambda/E(B-V)
#
 3000.000        5.34140        5.47936
 3003.000        5.33625        5.47408
 3006.000        5.33112        5.46882
 3009.000        5.32602        5.46358
 3012.000        5.32094        5.45837
 3015.000        5.31588        5.45318
 3018.000        5.31085        5.44802
 3021.000        5.30584        5.44288
 3024.000        5.30085        5.43776
 3027.000        5.29588        5.43267
 3030.000        5.29094        5.42760
 3033.000        5.26095        5.39683
 3036.000        5.25692        5.39270
 3039.000        5.25303        5.38871
 3042.000        5.24927        5.38485
 3045.000        5.24562        5.38110
 3048.000        5.24207        5.37747
 3051.000        5.23863        5.37394
 3054.000        5.23529        5.37051
 3057.000        5.23203        5.36716
 3060.000        5.22885        5.36390
 3063.000        5.22574        5.36071
 3066.000        5.22270        5.35759
 3069.000        5.21972        5.35454
 3072.000        5.21680        5.35154
 3075.000        5.21392        5.34859
 3078.000        5.21109        5.34569
 3081.000        5.20831        5.34283
 3084.000        5.20555        5.34000
 3087.000        5.20283        5.33721
 3090.000        5.20013        5.33445
 3093.000        5.19746        5.33170
 3096.000        5.19480        5.32898
 3099.000        5.19216        5.32627
 3102.000        5.18953        5.32357
 3105.000        5.18690        5.32087
 3108.000        5.18428        5.31819
 3111.000        5.18166        5.31550
 3114.000        5.17904        5.31281
 3117.000        5.17642        5.31011
 3120.000        5.17378        5.30741
 3123.000        5.17114        5.30470
 3126.000        5.16848        5.30197
 3129.000        5.16581        5.29923
 3132.000        5.16312        5.29647
 3135.000        5.16041        5.29369
 3138.000        5.15768        5.29089
 3141.000        5.15493        5.28807
 3144.000        5.15215        5.28522
 3147.000        5.14935        5.28235
 3150.000        5.14652        5.27945
 3153.000        5.14366        5.27652
 3156.000        5.14078        5.27355
 3159.000        5.13786        5.27056
 3162.000        5.13491        5.26754
 3165.000        5.13193        5.26447
 3168.000        5.12891        5.26138
 3171.000        5.12586        5.25825
 3174.000        5.12277        5.25508
 3177.000        5.11965        5.25188
 3180.000        5.11649        5.24864
 3183.000        5.11329        5.24536
 3186.000        5.11006        5.24204
 3189.000        5.10678        5.23868
 3192.000        5.10347        5.23529
 3195.000        5.10013        5.23185
 3198.000        5.09674        5.22838
 3201.000        5.09331        5.22486
 3204.000        5.08984        5.22131
 3207.000        5.08634        5.21771
 3210.000        5.08280        5.21408
 3213.000        5.07921        5.21040
 3216.000        5.07559        5.20669
 3219.000        5.07193        5.20293
 3222.000        5.06823        5.19913
 3225.000        5.06449        5.19530
 3228.000        5.06072        5.19143
 3231.000        5.05690        5.18751
 3234.000        5.05305        5.18356
 3237.000        5.04916        5.17957
 3240.000        5.04524        5.17555
 3243.000        5.04127        5.17148
 3246.000        5.03727        5.16738
 3249.000        5.03324        5.16324
 3252.000        5.02917        5.15906
 3255.000        5.02506        5.15485
 3258.000        5.02093        5.15061
 3261.000        5.01675        5.14633
 3264.000        5.01255        5.14201
 3267.000        5.00831        5.13766
 3270.000        5.00404        5.13328
 3273.000        4.99974        5.12887
 3276.000        4.99540        5.12443
 3279.000        4.99104        5.11995
 3282.000        4.98665        5.11544
 3285.000        4.98223        5.11091
 3288.000        4.97778        5.10634
 3291.000        4.97330        5.10175
 3294.000        4.96880        5.09713
 3297.000        4.96426        5.09248
 3300.000        4.95971        5.08781
 3303.000        4.95513        5.08311
 3306.000        4.95052        5.07839
 3309.000        4.94589        5.07364
 3312.000        4.94124        5.06887
 3315.000        4.93657        5.06407
 3318.000        4.93187        5.05926
 3321.000        4.92716        5.05442
 3324.000        4.92242        5.04956
 3327.000        4.91767        5.04469
 3330.000        4.91290        5.03979
 3333.000        4.90811        5.03488
 3336.000        4.90330        5.02994
 3339.000        4.89848        5.02500
 3342.000        4.89364        5.02003
 3345.000        4.88878        5.01505
 3348.000        4.88391        5.01006
 3351.000        4.87903        5.00505
 3354.000        4.87414        5.00003
 3357.000        4.86923        4.99499
 3360.000        4.86431        4.98995
 3363.000        4.85938        4.98489
 3366.000        4.85445        4.97983
 3369.000        4.84950        4.97475
 3372.000        4.84454        4.96967
 3375.000        4.83958        4.96458
 3378.000        4.83461        4.95947
 3381.000        4.82963        4.95437
 3384.000        4.82464        4.94926
 3387.000        4.81965        4.94414
 3390.000        4.81466        4.93901
 3393.000        4.80966        4.93389
 3396.000        4.80466        4.92876
 3399.000        4.79966        4.92362
 3402.000        4.79465        4.91849
 3405.000        4.78964        4.91335
 3408.000        4.78463        4.90821
 3411.000        4.77962        4.90307
 3414.000        4.77461        4.89793
 3417.000        4.76961        4.89280
 3420.000        4.76460        4.88766
 3423.000        4.75959        4.88253
 3426.000        4.75459        4.87740
 3429.000        4.74959        4.87227
 3432.000        4.74460        4.86714
 3435.000        4.73960        4.86202
 3438.000        4.73462        4.85690
 3441.000        4.72964        4.85179
 3444.000        4.72466        4.84669
 3447.000        4.71969        4.84159
 3450.000        4.71472        4.83650
 3453.000        4.70977        4.83141
 3456.000        4.70482        4.82634
 3459.000        4.69988        4.82127
 3462.000        4.69494        4.81621
 3465.000        4.69002        4.81115
 3468.000        4.68510        4.80611
 3471.000        4.68020        4.80108
 3474.000        4.67530        4.79606
 3477.000        4.67042        4.79105
 3480.000        4.66554        4.78605
 3483.000        4.66068        4.78106
 3486.000        4.65583        4.77608
 3489.000        4.65099        4.77112
 3492.000        4.64616        4.76617
 3495.000        4.64135        4.76123
 3498.000        4.63655        4.75630
 3501.000        4.63176        4.75139
 3504.000        4.62699        4.74649
 3507.000        4.62223        4.74161
 3510.000        4.61748        4.73674
 3513.000        4.61275        4.73189
 3516.000        4.60803        4.72705
 3519.000        4.60333        4.72223
 3522.000        4.59864        4.71742
 3525.000        4.59397        4.71263
 3528.000        4.58932        4.70785
 3531.000        4.58468        4.70309
 3534.000        4.58006        4.69835
 3537.000        4.57545        4.69363
 3540.000        4.57086        4.68892
 3543.000        4.56629        4.68423
 3546.000        4.56174        4.67956
 3549.000        4.55720        4.67490
 3552.000        4.55268        4.67027
 3555.000        4.54818        4.66565
 3558.000        4.54369        4.66105
 3561.000        4.53923        4.65647
 3564.000        4.53478        4.65191
 3567.000        4.53035        4.64736
 3570.000        4.52594        4.64284
 3573.000        4.52155        4.63833
 3576.000        4.51718        4.63385
 3579.000        4.51282        4.62938
 3582.000        4.50849        4.62494
 3585.000        4.50417        4.62051
 3588.000        4.49988        4.61610
 3591.000        4.49560        4.61171
 3594.000        4.49134        4.60735
 3597.000        4.48711        4.60300
 3600.000        4.48289        4.59867
 3603.000        4.47869        4.59437
 3606.000        4.47451        4.59008
 3609.000        4.47035        4.58581
 3612.000        4.46621        4.58157
 3615.000        4.46209        4.57734
 3618.000        4.45799        4.57314
 3621.000        4.45391        4.56895
 3624.000        4.44986        4.56479
 3627.000        4.44582        4.56064
 3630.000        4.44180        4.55652
 3633.000        4.43780        4.55242
 3636.000        4.43382        4.54834
 3639.000        4.42986        4.54428
 3642.000        4.42592        4.54024
 3645.000        4.42200        4.53622
 3648.000        4.41811        4.53222
 3651.000        4.41423        4.52824
 3654.000        4.41037        4.52428
 3657.000        4.40653        4.52034
 3660.000        4.40271        4.51643
 3663.000        4.39891        4.51253
 3666.000        4.39514        4.50865
 3669.000        4.39138        4.50480
 3672.000        4.38764        4.50096
 3675.000        4.38392        4.49715
 3678.000        4.38022        4.49335
 3681.000        4.37654        4.48958
 3684.000        4.37288        4.48583
 3687.000        4.36924        4.48209
 3690.000        4.36562        4.47838
 3693.000        4.36202        4.47468
 3696.000        4.35844        4.47101
 3699.000        4.35487        4.46735
 3702.000        4.35133        4.46372
 3705.000        4.34780        4.46010
 3708.000        4.34430        4.45651
 3711.000        4.34081        4.45293
 3714.000        4.33734        4.44937
 3717.000        4.33389        4.44583
 3720.000        4.33046        4.44231
 3723.000        4.32705        4.43881
 3726.000        4.32366        4.43533
 3729.000        4.32028        4.43187
 3732.000        4.31692        4.42842
 3735.000        4.31359        4.42500
 3738.000        4.31026        4.42159
 3741.000        4.30696        4.41820
 3744.000        4.30367        4.41483
 3747.000        4.30041        4.41148
 3750.000        4.29715        4.40814
 3753.000        4.29392        4.40483
 3756.000        4.29070        4.40153
 3759.000        4.28750        4.39824
 3762.000        4.28432        4.39498
 3765.000        4.28116        4.39173
 3768.000        4.27801        4.38850
 3771.000        4.27487        4.38529
 3774.000        4.27176        4.38209
 3777.000        4.26866        4.37891
 3780.000        4.26557        4.37575
 3783.000        4.26250        4.37260
 3786.000        4.25945        4.36947
 3789.000        4.25641        4.36635
 3792.000        4.25339        4.36325
 3795.000        4.25039        4.36017
 3798.000        4.24740        4.35710
 3801.000        4.24442        4.35405
 3804.000        4.24146        4.35101
 3807.000        4.23851        4.34799
 3810.000        4.23558        4.34498
 3813.000        4.23266        4.34199
 3816.000        4.22976        4.33901
 3819.000        4.22687        4.33604
 3822.000        4.22400        4.33309
 3825.000        4.22113        4.33016
 3828.000        4.21829        4.32724
 3831.000        4.21545        4.32433
 3834.000        4.21263        4.32144
 3837.000        4.20982        4.31856
 3840.000        4.20703        4.31569
 3843.000        4.20425        4.31283
 3846.000        4.20148        4.30999
 3849.000        4.19872        4.30716
 3852.000        4.19597        4.30435
 3855.000        4.19324        4.30155
 3858.000        4.19052        4.29875
 3861.000        4.18781        4.29598
 3864.000        4.18511        4.29321
 3867.000        4.18243        4.29045
 3870.000        4.17975        4.28771
 3873.000        4.17709        4.28498
 3876.000        4.17444        4.28226
 3879.000        4.17180        4.27955
 3882.000        4.16916        4.27685
 3885.000        4.16654        4.27416
 3888.000        4.16393        4.27148
 3891.000        4.16133        4.26881
 3894.000        4.15874        4.26616
 3897.000        4.15616        4.26351
 3900.000        4.15359        4.26087
 3903.000        4.15103        4.25825
 3906.000        4.14848        4.25563
 3909.000        4.14594        4.25302
 3912.000        4.14340        4.25042
 3915.000        4.14088        4.24783
 3918.000        4.13836        4.24525
 3921.000        4.13586        4.24268
 3924.000        4.13336        4.24011
 3927.000        4.13087        4.23756
 3930.000        4.12838        4.23501
 3933.000        4.12591        4.23247
 3936.000        4.12344        4.22994
 3939.000        4.12098        4.22742
 3942.000        4.11853        4.22490
 3945.000        4.11608        4.22239
 3948.000        4.11365        4.21989
 3951.000        4.11121        4.21740
 3954.000        4.10879        4.21491
 3957.000        4.10637        4.21243
 3960.000        4.10396        4.20996
 3963.000        4.10156        4.20749
 3966.000        4.09916        4.20503
 3969.000        4.09677        4.20258
 3972.000        4.09438        4.20013
 3975.000        4.09200        4.19769
 3978.000        4.08962        4.19525
 3981.000        4.08725        4.19282
 3984.000        4.08489        4.19039
 3987.000        4.08253        4.18797
 3990.000        4.08017        4.18556
 3993.000        4.07782        4.18315
 3996.000        4.07548        4.18074
 3999.000        4.07314        4.17834
 4002.000        4.07080        4.17595
 4005.000        4.06847        4.17355
 4008.000        4.06614        4.17117
 4011.000        4.06382        4.16878
 4014.000        4.06150        4.16640
 4017.000        4.05919        4.16403
 4020.000        4.05687        4.16166
 4023.000        4.05457        4.15929
 4026.000        4.05226        4.15692
 4029.000        4.04996        4.15456
 4032.000        4.04766        4.15220
 4035.000        4.04536        4.14985
 4038.000        4.04307        4.14750
 4041.000        4.04078        4.14515
 4044.000        4.03849        4.14280
 4047.000        4.03621        4.14046
 4050.000        4.03392        4.13811
 4053.000        4.03164        4.13578
 4056.000        4.02937        4.13344
 4059.000        4.02709        4.13110
 4062.000        4.02481        4.12877
 4065.000        4.02254        4.12644
 4068.000        4.02027        4.12411
 4071.000        4.01800        4.12178
 4074.000        4.01573        4.11945
 4077.000        4.01347        4.11713
 4080.000        4.01120        4.11480
 4083.000        4.00893        4.11248
 4086.000        4.00667        4.11016
 4089.000        4.00441        4.10783
 4092.000        4.00215        4.10551
 4095.000        3.99988        4.10319
 4098.000        3.99762        4.10087
 4101.000        3.99536        4.09856
 4104.000        3.99310        4.09624
 4107.000        3.99084        4.09392
 4110.000        3.98858        4.09160
 4113.000        3.98632        4.08928
 4116.000        3.98406        4.08696
 4119.000        3.98180        4.08465
 4122.000        3.97954        4.08233
 4125.000        3.97728        4.08001
 4128.000        3.97502        4.07769
 4131.000        3.97276        4.07537
 4134.000        3.97050        4.07305
 4137.000        3.96823        4.07073
 4140.000        3.96597        4.06841
 4143.000        3.96371        4.06608
 4146.000        3.96144        4.06376
 4149.000        3.95917        4.06143
 4152.000        3.95691        4.05911
 4155.000        3.95464        4.05678
 4158.000        3.95237        4.05445
 4161.000        3.95010        4.05212
 4164.000        3.94782        4.04979
 4167.000        3.94555        4.04746
 4170.000        3.94327        4.04512
 4173.000        3.94100        4.04279
 4176.000        3.93872        4.04045
 4179.000        3.93644        4.03811
 4182.000        3.93415        4.03577
 4185.000        3.93187        4.03342
 4188.000        3.92958        4.03108
 4191.000        3.92729        4.02873
 4194.000        3.92500        4.02638
 4197.000        3.92271        4.02403
 4200.000        3.92041        4.02167
 4203.000        3.91812        4.01932
 4206.000        3.91582        4.01696
 4209.000        3.91351        4.01459
 4212.000        3.91121        4.01223
 4215.000        3.90890        4.00986
 4218.000        3.90659        4.00749
 4221.000        3.90428        4.00512
 4224.000        3.90196        4.00275
 4227.000        3.89965        4.00037
 4230.000        3.89733        3.99799
 4233.000        3.89500        3.99560
 4236.000        3.89267        3.99322
 4239.000        3.89034        3.99083
 4242.000        3.88801        3.98843
 4245.000        3.88568        3.98604
 4248.000        3.88334        3.98364
 4251.000        3.88100        3.98124
 4254.000        3.87865        3.97883
 4257.000        3.87630        3.97642
 4260.000        3.87395        3.97401
 4263.000        3.87159        3.97159
 4266.000        3.86924        3.96917
 4269.000        3.86687        3.96675
 4272.000        3.86451        3.96432
 4275.000        3.86214        3.96189
 4278.000        3.85977        3.95946
 4281.000        3.85739        3.95702
 4284.000        3.85501        3.95458
 4287.000        3.85263        3.95214
 4290.000        3.85025        3.94969
 4293.000        3.84786        3.94724
 4296.000        3.84546        3.94478
 4299.000        3.84306        3.94232
 4302.000        3.84066        3.93986
 4305.000        3.83826        3.93739
 4308.000        3.83585        3.93492
 4311.000        3.83344        3.93245
 4314.000        3.83102        3.92997
 4317.000        3.82860        3.92749
 4320.000        3.82618        3.92500
 4323.000        3.82375        3.92251
 4326.000        3.82132        3.92002
 4329.000        3.81888        3.91752
 4332.000        3.81644        3.91502
 4335.000        3.81400        3.91251
 4338.000        3.81155        3.91000
 4341.000        3.80910        3.90748
 4344.000        3.80665        3.90496
 4347.000        3.80419        3.90244
 4350.000        3.80172        3.89991
 4353.000        3.79925        3.89738
 4356.000        3.79678        3.89485
 4359.000        3.79431        3.89231
 4362.000        3.79183        3.88977
 4365.000        3.78934        3.88722
 4368.000        3.78686        3.88467
 4371.000        3.78437        3.88211
 4374.000        3.78187        3.87955
 4377.000        3.77937        3.87698
 4380.000        3.77687        3.87442
 4383.000        3.77436        3.87184
 4386.000        3.77184        3.86927
 4389.000        3.76933        3.86668
 4392.000        3.76681        3.86410
 4395.000        3.76428        3.86151
 4398.000        3.76175        3.85891
 4401.000        3.75922        3.85632
 4404.000        3.75669        3.85371
 4407.000        3.75414        3.85111
 4410.000        3.75160        3.84850
 4413.000        3.74905        3.84588
 4416.000        3.74650        3.84326
 4419.000        3.74394        3.84064
 4422.000        3.74138        3.83801
 4425.000        3.73881        3.83538
 4428.000        3.73624        3.83274
 4431.000        3.73367        3.83010
 4434.000        3.73109        3.82746
 4437.000        3.72851        3.82481
 4440.000        3.72593        3.82216
 4443.000        3.72334        3.81950
 4446.000        3.72074        3.81684
 4449.000        3.71814        3.81418
 4452.000        3.71554        3.81151
 4455.000        3.71294        3.80884
 4458.000        3.71033        3.80616
 4461.000        3.70771        3.80348
 4464.000        3.70510        3.80079
 4467.000        3.70248        3.79811
 4470.000        3.69985        3.79541
 4473.000        3.69722        3.79272
 4476.000        3.69459        3.79001
